File: stock/TGA.csv
,adjclose,close,date,high,low,open,volume
0,1.39832,1.44,2017-12-29,1.44,1.41,1.43,57600
24,1.45658,1.5,2017-11-24,1.5,1.46,1.46,2700
48,1.53427,1.58,2017-10-20,1.59,1.53,1.58,28900
72,1.08758,1.12,2017-09-18,1.17,1.09,1.1,289100
96,1.14584,1.18,2017-08-14,1.21,1.16,1.2,100500
120,1.23324,1.27,2017-07-11,1.29,1.26,1.27,24700
144,1.36919,1.41,2017-06-06,1.43,1.38,1.4,151700
168,1.40803,1.45,2017-05-02,1.49,1.45,1.48,54600
192,1.49542,1.54,2017-03-28,1.56,1.49,1.5,60000
216,1.65079,1.7,2017-02-22,1.78,1.7,1.77,118000
240,1.67021,1.72,2017-01-18,1.78,1.72,1.78,35400
264,1.71877,1.77,2016-12-12,1.89,1.76,1.78,282800
288,1.75761,1.81,2016-11-07,1.89,1.78,1.8,42200
312,1.94211,2.0,2016-10-04,2.06,1.96,1.97,111000
336,1.81587,1.87,2016-08-30,1.9,1.81,1.81,43900
360,1.58282,1.63,2016-07-27,1.72,1.6,1.72,31100
384,1.77703,1.83,2016-06-22,1.89,1.72,1.72,116100
408,1.80616,1.86,2016-05-18,1.96,1.8,1.92,74400
432,1.70906,1.76,2016-04-14,1.8,1.75,1.8,48400
456,1.64108,1.69,2016-03-10,1.71,1.57,1.57,130400
480,1.27208,1.31,2016-02-04,1.36,1.27,1.28,152000
504,1.72848,1.78,2015-12-30,1.79,1.7,1.71,171800
528,1.99966,2.09,2015-11-24,2.12,2.0,2.05,161800
552,2.53545,2.65,2015-10-21,2.74,2.62,2.72,63200
576,2.72681,2.85,2015-09-17,2.93,2.81,2.86,76400
600,2.77999,2.96,2015-08-13,3.11,2.9,3.09,253000
624,3.39986,3.62,2015-07-10,3.81,3.62,3.76,130800
648,3.78583,4.08,2015-06-05,4.1,3.94,3.96,91400
672,4.30545,4.64,2015-05-01,4.66,4.42,4.57,299100
696,3.29404,3.55,2015-03-27,3.62,3.41,3.45,435400
720,2.68225,2.94,2015-02-23,3.01,2.89,2.97,336700
744,2.76436,3.03,2015-01-16,3.07,2.76,2.76,957700
768,2.67313,2.93,2014-12-11,3.12,2.88,3.01,457300
792,3.73204,4.16,2014-11-06,4.19,3.94,3.97,189500
816,4.97904,5.55,2014-10-03,5.74,5.5,5.65,224800
840,6.03469,6.78,2014-08-29,6.82,6.71,6.77,157700
864,5.94568,6.68,2014-07-28,6.7,6.58,6.69,157800
888,6.65774,7.48,2014-06-23,7.65,7.43,7.59,197300
912,5.69667,6.59,2014-05-19,7.02,6.49,6.49,79100
936,6.41416,7.42,2014-04-14,7.51,7.35,7.39,235000
960,6.51789,7.54,2014-03-11,7.78,7.53,7.72,105900
984,5.86091,6.78,2014-02-04,7.28,6.33,6.87,472000
1008,7.15757,8.28,2013-12-30,8.39,8.22,8.32,103400
1032,7.62437,8.82,2013-11-22,8.92,8.68,8.92,50100
1056,8.03066,9.29,2013-10-21,9.5,9.24,9.5,336900
1080,6.80315,7.87,2013-09-17,7.99,7.69,7.7,224900
1104,5.70531,6.6,2013-08-13,6.63,6.36,6.51,112800
1128,4.96189,5.74,2013-07-10,5.86,5.73,5.86,126100
1152,6.18076,7.15,2013-06-05,7.31,7.05,7.21,70000
1176,6.69077,7.74,2013-05-01,7.92,7.7,7.83,54700
1200,7.41691,8.58,2013-03-27,8.61,8.53,8.57,13800
1224,6.58704,7.62,2013-02-21,7.67,7.37,7.65,156400
1248,7.4342,8.6,2013-01-16,8.65,8.22,8.46,167500
1272,8.55797,9.9,2012-12-11,10.08,9.8,9.84,37000
1296,10.5462,12.2,2012-11-06,12.58,11.94,11.96,188000
1320,9.89785,11.45,2012-10-01,11.47,10.9,10.99,115300
1344,9.06799,10.49,2012-08-27,10.64,10.46,10.61,43900
1368,7.57251,8.76,2012-07-24,8.87,8.63,8.75,76300
1392,8.16897,9.45,2012-06-19,9.66,9.24,9.41,85000
1416,9.37054,10.84,2012-05-15,11.24,10.81,11.15,103000
1440,11.3242,13.1,2012-04-11,13.15,12.38,12.47,198600
1464,9.7509,11.28,2012-03-07,11.35,11.12,11.34,109600
1488,9.04206,10.46,2012-02-01,10.66,9.7,9.83,216800
1512,6.97604,8.07,2011-12-27,8.07,7.81,7.9,62400
1536,6.83773,7.91,2011-11-21,8.32,7.81,8.32,193000
1560,7.90964,9.15,2011-10-18,9.29,8.6,8.79,92400
1584,8.12575,9.4,2011-09-14,9.56,8.96,9.22,76500
1608,7.64166,8.84,2011-08-10,9.23,8.5,9.09,240200
1632,10.9784,12.7,2011-07-07,12.96,12.62,12.75,159500
1656,12.5517,14.52,2011-06-02,14.91,14.16,14.81,173100
1680,12.6295,14.61,2011-04-28,14.63,14.2,14.31,251000
1704,12.0071,13.89,2011-03-24,14.16,13.82,14.16,109800
1728,13.1222,15.18,2011-02-17,15.37,14.94,15.0,363800
1752,13.3729,15.47,2011-01-13,15.57,15.13,15.25,237200
1776,15.1537,17.53,2010-12-09,18.2,17.18,17.66,854200
1800,11.0821,12.82,2010-11-04,12.85,12.0,12.04,904400
1824,8.30728,9.61,2010-10-01,9.74,9.52,9.55,155600
1848,6.56111,7.59,2010-08-27,7.6,7.26,7.31,89700
1872,6.45738,7.47,2010-07-26,7.53,7.37,7.46,112200
1896,6.76858,7.83,2010-06-21,8.28,7.8,7.97,261900
1920,6.29313,7.28,2010-05-17,7.34,7.12,7.29,293900
1944,5.74854,6.65,2010-04-13,6.7,6.35,6.5,309300
1968,3.69981,4.28,2010-03-09,4.29,3.95,3.95,163400
1992,3.35403,3.88,2010-02-02,3.96,3.71,3.76,128700
2016,2.83537,3.28,2009-12-28,3.34,3.22,3.33,154000
2040,3.06877,3.55,2009-11-20,3.6,3.4,3.4,166500
2064,3.86405,4.47,2009-10-19,4.53,4.38,4.42,144600
2088,2.92181,3.38,2009-09-15,3.45,3.27,3.3,101100
2112,2.69706,3.12,2009-08-11,3.18,3.05,3.17,116800
2136,1.98822,2.3,2009-07-08,2.45,2.24,2.45,167000
2160,2.35992,2.73,2009-06-03,2.9,2.68,2.9,112500
2184,2.23026,2.58,2009-04-29,2.62,2.53,2.54,167400
2208,2.44637,2.83,2009-03-25,2.86,2.67,2.78,167800
2232,2.18704,2.53,2009-02-19,2.62,2.53,2.58,56500
2256,1.99686,2.31,2009-01-14,2.48,2.28,2.42,140500
2280,1.73753,2.01,2008-12-09,2.09,2.0,2.06,63000
2304,2.1611,2.5,2008-11-04,2.53,2.44,2.45,275800
2328,2.65383,3.07,2008-10-01,3.17,2.87,3.09,123800
2352,3.3281,3.85,2008-08-27,3.86,3.79,3.8,363100
2376,3.43183,3.97,2008-07-24,4.15,3.94,4.08,230600
2400,4.59883,5.32,2008-06-19,5.39,5.29,5.35,242700
2424,4.20983,4.87,2008-05-15,4.9,4.84,4.86,111300
2448,4.04558,4.68,2008-04-11,4.8,4.67,4.72,99300
2472,4.64205,5.37,2008-03-07,5.51,5.15,5.47,158000
2496,4.16661,4.82,2008-02-01,4.94,4.75,4.83,199500
2520,4.42594,5.12,2007-12-27,5.25,5.11,5.25,89900
2544,4.61612,5.34,2007-11-21,5.55,5.25,5.55,196100
2568,4.90138,5.67,2007-10-18,5.87,5.56,5.6,584200
2592,3.90727,4.52,2007-09-14,4.57,4.43,4.45,126400
2616,3.23301,3.74,2007-08-10,3.8,3.51,3.8,844100
2640,4.20119,4.86,2007-07-09,5.0,4.81,4.99,293200
2664,3.46641,4.01,2007-06-04,4.07,4.01,4.01,172900
2688,3.77761,4.37,2007-04-30,4.6,4.33,4.48,210900
2712,3.46641,4.01,2007-03-26,4.12,4.01,4.08,73000
2736,3.81219,4.41,2007-02-20,4.45,4.37,4.4,215000
2760,4.09745,4.74,2007-01-16,4.93,4.72,4.72,149000
2784,4.31356,4.99,2006-12-07,5.06,4.95,5.05,122700
2808,3.94185,4.56,2006-11-02,4.68,4.52,4.67,88500
2832,4.13203,4.78,2006-09-29,4.78,4.69,4.75,77300
2856,4.19254,4.85,2006-08-25,4.85,4.76,4.76,55200
2880,3.91592,4.53,2006-07-24,4.6,4.5,4.5,113500
2904,3.7949,4.39,2006-06-19,4.62,4.39,4.56,84100
2928,4.51238,5.22,2006-05-15,5.36,5.15,5.32,377500
2952,5.27309,6.1,2006-04-10,6.15,5.94,5.95,615000
2976,5.12614,5.93,2006-03-07,6.08,5.82,6.07,288000
3000,5.29038,6.12,2006-01-31,6.12,5.85,5.9,667100
3024,4.64205,5.37,2005-12-23,5.38,5.3,5.38,336800
3048,4.42594,5.12,2005-11-18,5.24,5.08,5.2,173700
3072,4.64205,5.37,2005-10-17,5.58,5.35,5.45,191700
3096,5.22123,6.04,2005-09-13,6.12,6.02,6.1,203000
3120,5.49785,6.36,2005-08-09,6.52,6.35,6.45,235100
3144,6.02516,6.97,2005-07-06,7.15,6.82,6.97,442700
3168,4.65069,5.38,2005-06-01,5.4,5.15,5.15,208700
3192,4.97918,5.76,2005-04-27,6.25,5.7,6.15,830800
3216,5.47191,6.33,2005-03-23,6.65,6.18,6.65,681900
3240,5.91278,6.84,2005-02-16,6.85,6.72,6.77,296500
3264,4.33085,5.01,2005-01-12,5.01,4.71,4.71,278800
3288,3.92456,4.54,2004-12-08,4.55,4.08,4.4,841200
3312,3.37132,3.9,2004-11-03,3.93,3.78,3.8,205900
3336,2.80943,3.25,2004-09-30,3.32,3.1,3.13,341800
3360,2.06601,2.39,2004-08-26,2.39,2.34,2.36,33600
3384,2.17839,2.52,2004-07-23,2.55,2.5,2.55,134600
3408,2.18704,2.53,2004-06-18,2.53,2.49,2.5,114600
3432,1.97957,2.29,2004-05-13,2.35,2.22,2.35,101900
3456,2.50688,2.9,2004-04-08,2.99,2.86,2.89,548600
3480,2.43772,2.82,2004-03-05,2.86,2.72,2.78,218300
3504,2.0833,2.41,2004-01-30,2.5,2.35,2.35,424800
3528,2.1611,2.5,2003-12-24,2.5,2.29,2.3,292400
3552,1.48684,1.72,2003-11-19,1.84,1.66,1.82,215700
3576,1.03733,1.2,2003-10-16,1.21,1.16,1.21,119100
3600,0.864441,1.0,2003-09-12,1.03,0.98,1.01,119000
3624,0.708842,0.82,2003-08-08,0.83,0.79,0.83,264100
3648,0.449509,0.52,2003-07-07,0.55,0.48,0.54,262000
3672,0.466798,0.54,2003-06-02,0.55,0.53,0.55,107100
3696,0.406287,0.47,2003-04-28,0.48,0.47,0.47,97500
3720,0.388999,0.45,2003-03-24,0.45,0.42,0.44,90700
3744,0.345777,0.4,2003-02-18,0.42,0.38,0.42,14900
3768,0.337132,0.39,2003-01-13,0.42,0.39,0.41,85900
3792,0.319843,0.37,2002-12-06,0.41,0.35,0.36,318600
3816,0.311199,0.36,2002-11-01,0.36,0.36,0.36,10000
3840,0.285266,0.33,2002-09-30,0.35,0.33,0.34,58000
3864,0.276621,0.32,2002-08-26,0.33,0.29,0.3,101000
3888,0.250688,0.29,2002-07-23,0.3,0.28,0.3,87400
3912,0.276621,0.32,2002-06-18,0.38,0.32,0.38,51200
3936,0.311199,0.36,2002-05-14,0.36,0.33,0.33,31900
3960,0.259332,0.3,2002-04-10,0.33,0.29,0.29,21000
3984,0.224755,0.26,2002-03-06,0.28,0.25,0.28,23300
4008,0.311199,0.36,2002-01-30,0.39,0.36,0.39,17000
4032,0.250688,0.29,2001-12-24,0.29,0.29,0.29,11700
4056,0.224755,0.26,2001-11-19,0.26,0.23,0.23,7600
4080,0.164244,0.19,2001-10-16,0.21,0.19,0.21,67200
4104,0.233399,0.27,2001-09-06,0.27,0.25,0.25,70900
4128,0.259332,0.3,2001-08-02,0.3,0.3,0.3,6400
4152,0.267977,0.31,2001-06-28,0.31,0.31,0.31,700
4176,0.388999,0.45,2001-05-24,0.45,0.45,0.45,1700
4200,0.319843,0.37,2001-04-20,0.39,0.37,0.38,6000
4224,0.270138,0.3125,2001-03-16,0.34375,0.3125,0.34375,56500
4248,0.364686,0.421875,2001-02-09,0.421875,0.390625,0.421875,61600
4272,0.378193,0.4375,2001-01-05,0.4375,0.40625,0.4375,24500
4296,0.432221,0.5,2000-11-30,0.578125,0.453125,0.546875,145700
4320,0.702359,0.8125,2000-10-26,0.90625,0.78125,0.859375,92700
4344,0.540276,0.625,2000-09-22,0.6875,0.609375,0.609375,19600
4368,0.486248,0.5625,2000-08-18,0.578125,0.484375,0.5,701600
4392,0.405207,0.46875,2000-07-17,0.515625,0.453125,0.5,47700
4416,0.432221,0.5,2000-06-12,0.53125,0.484375,0.5,37600
4440,0.540276,0.625,2000-05-08,0.625,0.5625,0.5625,74800
4464,0.540276,0.625,2000-04-03,0.625,0.515625,0.59375,117300
4488,0.297152,0.34375,2000-02-29,0.421875,0.34375,0.421875,42300
4512,0.297152,0.34375,2000-01-25,0.375,0.34375,0.34375,24200
4527,0.337672,0.390625,2000-01-03,0.40625,0.3125,0.3125,17500